May 24, 2025   14:47:08
Linear Sweep Voltammetry
File: c:\python\win\device_jules\experiment_results\c60_from_easy_lsv.bin
Data Source:  Experiment
Instrument Model:  CHI760E
Header: CHI760E LSV
Note: 

Init E (V) = 0
Final E (V) = -2.2
Scan Rate (V/s) = 0.2
Sample Interval (V) = 0.01
Quiet Time (sec) = 2
Sensitivity (A/V) = 0.1

Ep = -1.235V
ip = -1.455e-11A
Ah = -1.091e-12C

Ep = -1.965V
ip = -3.241e-7A
Ah = -6.434e-8C

Potential/V, Current/A

-0.005, -7.736e-5
-0.015, -7.766e-5
-0.025, -7.815e-5
-0.035, -7.775e-5
-0.045, -7.864e-5
-0.055, -7.884e-5
-0.065, -7.913e-5
-0.075, -7.893e-5
-0.085, -7.795e-5
-0.095, -7.854e-5
-0.105, -7.874e-5
-0.115, -7.893e-5
-0.125, -7.834e-5
-0.135, -7.893e-5
-0.145, -7.815e-5
-0.155, -7.854e-5
-0.165, -7.893e-5
-0.175, -8.011e-5
-0.185, -7.923e-5
-0.195, -8.011e-5
-0.205, -7.992e-5
-0.215, -7.992e-5
-0.225, -7.972e-5
-0.235, -8.021e-5
-0.245, -8.011e-5
-0.255, -8.031e-5
-0.265, -7.972e-5
-0.275, -8.021e-5
-0.285, -8.001e-5
-0.295, -8.031e-5
-0.305, -8.011e-5
-0.315, -7.992e-5
-0.325, -7.913e-5
-0.335, -8.011e-5
-0.345, -7.972e-5
-0.355, -7.942e-5
-0.365, -7.864e-5
-0.375, -7.874e-5
-0.385, -7.933e-5
-0.395, -7.952e-5
-0.405, -7.942e-5
-0.415, -7.942e-5
-0.425, -7.933e-5
-0.435, -7.992e-5
-0.445, -7.982e-5
-0.455, -7.893e-5
-0.465, -7.962e-5
-0.475, -7.972e-5
-0.485, -7.923e-5
-0.495, -7.923e-5
-0.505, -7.893e-5
-0.515, -7.933e-5
-0.525, -7.952e-5
-0.535, -7.903e-5
-0.545, -7.933e-5
-0.555, -7.933e-5
-0.565, -7.933e-5
-0.575, -7.952e-5
-0.585, -7.952e-5
-0.595, -7.893e-5
-0.605, -7.933e-5
-0.615, -7.913e-5
-0.625, -7.952e-5
-0.635, -7.923e-5
-0.645, -7.884e-5
-0.655, -7.942e-5
-0.665, -7.874e-5
-0.675, -7.933e-5
-0.685, -7.962e-5
-0.695, -7.972e-5
-0.705, -7.972e-5
-0.715, -8.011e-5
-0.725, -8.001e-5
-0.735, -8.001e-5
-0.745, -7.942e-5
-0.755, -7.952e-5
-0.765, -7.923e-5
-0.775, -7.854e-5
-0.785, -7.992e-5
-0.795, -7.952e-5
-0.805, -7.952e-5
-0.815, -7.972e-5
-0.825, -7.972e-5
-0.835, -8.001e-5
-0.845, -7.972e-5
-0.855, -7.893e-5
-0.865, -7.933e-5
-0.875, -8.011e-5
-0.885, -7.913e-5
-0.895, -7.972e-5
-0.905, -7.933e-5
-0.915, -7.982e-5
-0.925, -7.972e-5
-0.935, -7.962e-5
-0.945, -7.933e-5
-0.955, -7.992e-5
-0.965, -7.933e-5
-0.975, -8.011e-5
-0.985, -7.972e-5
-0.995, -7.962e-5
-1.005, -7.992e-5
-1.015, -7.992e-5
-1.025, -7.933e-5
-1.035, -7.982e-5
-1.045, -7.942e-5
-1.055, -7.942e-5
-1.065, -7.972e-5
-1.075, -8.021e-5
-1.085, -8.011e-5
-1.095, -8.001e-5
-1.105, -8.031e-5
-1.115, -7.952e-5
-1.125, -7.972e-5
-1.135, -7.972e-5
-1.145, -7.972e-5
-1.155, -7.972e-5
-1.165, -7.972e-5
-1.175, -7.962e-5
-1.185, -7.992e-5
-1.195, -7.992e-5
-1.205, -7.992e-5
-1.215, -8.001e-5
-1.225, -7.992e-5
-1.235, -8.011e-5
-1.245, -7.933e-5
-1.255, -7.972e-5
-1.265, -7.933e-5
-1.275, -7.962e-5
-1.285, -8.011e-5
-1.295, -7.942e-5
-1.305, -7.933e-5
-1.315, -7.982e-5
-1.325, -7.972e-5
-1.335, -7.903e-5
-1.345, -7.952e-5
-1.355, -7.972e-5
-1.365, -7.893e-5
-1.375, -7.992e-5
-1.385, -7.933e-5
-1.395, -7.942e-5
-1.405, -7.893e-5
-1.415, -7.913e-5
-1.425, -7.854e-5
-1.435, -7.933e-5
-1.445, -7.923e-5
-1.455, -7.933e-5
-1.465, -7.913e-5
-1.475, -7.933e-5
-1.485, -7.933e-5
-1.495, -7.903e-5
-1.505, -7.933e-5
-1.515, -7.884e-5
-1.525, -7.854e-5
-1.535, -7.972e-5
-1.545, -7.884e-5
-1.555, -7.884e-5
-1.565, -7.893e-5
-1.575, -7.913e-5
-1.585, -7.903e-5
-1.595, -7.952e-5
-1.605, -7.893e-5
-1.615, -7.982e-5
-1.625, -7.893e-5
-1.635, -7.893e-5
-1.645, -7.942e-5
-1.655, -7.992e-5
-1.665, -7.933e-5
-1.675, -7.933e-5
-1.685, -7.893e-5
-1.695, -7.923e-5
-1.705, -7.874e-5
-1.715, -7.982e-5
-1.725, -7.962e-5
-1.735, -7.992e-5
-1.745, -8.011e-5
-1.755, -8.021e-5
-1.765, -8.011e-5
-1.775, -7.972e-5
-1.785, -7.913e-5
-1.795, -8.011e-5
-1.805, -7.933e-5
-1.815, -7.962e-5
-1.825, -7.903e-5
-1.835, -7.952e-5
-1.845, -7.933e-5
-1.855, -7.913e-5
-1.865, -7.913e-5
-1.875, -7.893e-5
-1.885, -7.923e-5
-1.895, -7.923e-5
-1.905, -7.903e-5
-1.915, -7.893e-5
-1.925, -7.933e-5
-1.935, -7.913e-5
-1.945, -7.933e-5
-1.955, -7.903e-5
-1.965, -7.952e-5
-1.975, -7.874e-5
-1.985, -7.893e-5
-1.995, -7.893e-5
-2.005, -7.913e-5
-2.015, -7.942e-5
-2.025, -7.913e-5
-2.035, -7.923e-5
-2.045, -7.864e-5
-2.055, -7.933e-5
-2.065, -7.913e-5
-2.075, -7.923e-5
-2.085, -7.893e-5
-2.095, -7.933e-5
-2.105, -7.962e-5
-2.115, -7.962e-5
-2.125, -7.933e-5
-2.135, -7.972e-5
-2.145, -7.864e-5
-2.155, -7.933e-5
-2.165, -7.903e-5
-2.175, -7.884e-5
-2.185, -7.884e-5
-2.195, -7.884e-5
